#ZA [deg]	H @ _ MHz	V @ _ MHz	H @ _ MHz	V @ _ MHz	H @ _ MHz	V @ _ MHz	H @ _ MHz	V @ _ MHz	H @ _ MHz	V @ _ MHz
   0	580	580	700	700	840	840	900	900	1015	1015
0	5.4624	6.1241	5.2004	5.8018	5.3996	5.6063	5.2095	5.5126	2.9415	3.2441
1	5.4350	6.1013	5.1580	5.7548	5.3493	5.5730	5.1539	5.4762	2.9114	3.2097
2	5.4094	6.0798	5.1181	5.7104	5.3024	5.5418	5.1016	5.4427	2.8828	3.1774
3	5.3852	6.0591	5.0803	5.6680	5.2587	5.5127	5.0520	5.4116	2.8556	3.1467
4	5.3620	6.0391	5.0445	5.6273	5.2180	5.4853	5.0048	5.3823	2.8296	3.1176
5	5.3398	6.0200	5.0105	5.5880	5.1800	5.4593	4.9599	5.3548	2.8047	3.0899
6	5.3182	6.0018	4.9782	5.5502	5.1444	5.4342	4.9170	5.3291	2.7808	3.0632
7	5.2971	5.9843	4.9474	5.5141	5.1111	5.4102	4.8760	5.3049	2.7576	3.0373
8	5.2763	5.9674	4.9180	5.4790	5.0797	5.3872	4.8366	5.2815	2.7351	3.0123
9	5.2557	5.9510	4.8899	5.4448	5.0500	5.3647	4.7988	5.2589	2.7131	2.9878
10	5.2353	5.9353	4.8628	5.4115	5.0215	5.3424	4.7623	5.2368	2.6916	2.9638
11	5.2151	5.9203	4.8368	5.3792	4.9940	5.3204	4.7270	5.2151	2.6704	2.9401
12	5.1950	5.9061	4.8117	5.3479	4.9674	5.2983	4.6929	5.1939	2.6494	2.9167
13	5.1751	5.8923	4.7875	5.3174	4.9414	5.2761	4.6597	5.1728	2.6287	2.8935
14	5.1553	5.8795	4.7639	5.2878	4.9160	5.2544	4.6272	5.1517	2.6082	2.8703
15	5.1356	5.8678	4.7410	5.2592	4.8910	5.2326	4.5955	5.1306	2.5879	2.8471
16	5.1160	5.8567	4.7185	5.2315	4.8663	5.2109	4.5645	5.1092	2.5678	2.8240
17	5.0965	5.8461	4.6964	5.2052	4.8420	5.1893	4.5341	5.0881	2.5479	2.8010
18	5.0772	5.8359	4.6744	5.1799	4.8178	5.1677	4.5044	5.0668	2.5284	2.7781
19	5.0582	5.8261	4.6525	5.1555	4.7938	5.1466	4.4753	5.0455	2.5093	2.7554
20	5.0395	5.8167	4.6307	5.1322	4.7700	5.1256	4.4467	5.0243	2.4906	2.7330
21	5.0211	5.8078	4.6090	5.1097	4.7463	5.1050	4.4185	5.0032	2.4725	2.7111
22	5.0033	5.7995	4.5872	5.0884	4.7228	5.0847	4.3905	4.9824	2.4551	2.6896
23	4.9859	5.7917	4.5652	5.0681	4.6995	5.0649	4.3624	4.9617	2.4385	2.6685
24	4.9691	5.7841	4.5431	5.0487	4.6766	5.0457	4.3342	4.9413	2.4226	2.6478
25	4.9530	5.7767	4.5207	5.0303	4.6540	5.0273	4.3057	4.9210	2.4074	2.6276
26	4.9376	5.7692	4.4979	5.0126	4.6317	5.0095	4.2769	4.9010	2.3927	2.6077
27	4.9227	5.7616	4.4745	4.9957	4.6100	4.9923	4.2482	4.8815	2.3787	2.5884
28	4.9087	5.7538	4.4510	4.9796	4.5893	4.9757	4.2199	4.8626	2.3652	2.5696
29	4.8957	5.7459	4.4275	4.9644	4.5696	4.9599	4.1922	4.8441	2.3520	2.5514
30	4.8840	5.7381	4.4042	4.9502	4.5508	4.9444	4.1653	4.8260	2.3391	2.5338
31	4.8734	5.7303	4.3809	4.9367	4.5331	4.9295	4.1395	4.8084	2.3264	2.5169
32	4.8638	5.7220	4.3580	4.9237	4.5167	4.9148	4.1152	4.7912	2.3140	2.5008
33	4.8552	5.7133	4.3354	4.9114	4.5017	4.9005	4.0925	4.7743	2.3018	2.4856
34	4.8473	5.7041	4.3134	4.8996	4.4881	4.8866	4.0716	4.7576	2.2897	2.4712
35	4.8404	5.6948	4.2921	4.8881	4.4760	4.8730	4.0524	4.7414	2.2778	2.4577
36	4.8343	5.6849	4.2715	4.8771	4.4656	4.8596	4.0351	4.7255	2.2660	2.4450
37	4.8290	5.6749	4.2516	4.8663	4.4568	4.8465	4.0199	4.7102	2.2544	2.4331
38	4.8243	5.6648	4.2324	4.8554	4.4495	4.8335	4.0066	4.6955	2.2431	2.4221
39	4.8205	5.6542	4.2138	4.8446	4.4437	4.8208	3.9953	4.6814	2.2321	2.4120
40	4.8172	5.6430	4.1961	4.8338	4.4390	4.8082	3.9857	4.6679	2.2214	2.4026
41	4.8146	5.6316	4.1791	4.8230	4.4351	4.7958	3.9774	4.6551	2.2112	2.3941
42	4.8124	5.6199	4.1632	4.8123	4.4319	4.7834	3.9704	4.6427	2.2016	2.3862
43	4.8106	5.6077	4.1483	4.8013	4.4291	4.7713	3.9644	4.6309	2.1925	2.3788
44	4.8089	5.5956	4.1343	4.7904	4.4265	4.7597	3.9593	4.6196	2.1839	2.3719
45	4.8073	5.5835	4.1214	4.7795	4.4238	4.7485	3.9549	4.6089	2.1760	2.3654
46	4.8056	5.5711	4.1096	4.7690	4.4211	4.7377	3.9510	4.5984	2.1687	2.3592
47	4.8036	5.5587	4.0989	4.7591	4.4181	4.7277	3.9475	4.5885	2.1620	2.3532
48	4.8014	5.5460	4.0891	4.7494	4.4148	4.7184	3.9445	4.5790	2.1559	2.3476
49	4.7989	5.5331	4.0801	4.7402	4.4113	4.7102	3.9418	4.5702	2.1505	2.3424
50	4.7959	5.5206	4.0717	4.7314	4.4075	4.7032	3.9397	4.5620	2.1456	2.3376
51	4.7926	5.5079	4.0637	4.7234	4.4037	4.6974	3.9380	4.5545	2.1413	2.3332
52	4.7889	5.4954	4.0561	4.7161	4.4000	4.6926	3.9371	4.5476	2.1375	2.3295
53	4.7848	5.4831	4.0488	4.7095	4.3964	4.6890	3.9369	4.5413	2.1344	2.3263
54	4.7799	5.4702	4.0419	4.7033	4.3932	4.6862	3.9378	4.5358	2.1318	2.3237
55	4.7746	5.4574	4.0354	4.6974	4.3906	4.6841	3.9399	4.5306	2.1297	2.3216
56	4.7689	5.4445	4.0294	4.6917	4.3884	4.6821	3.9434	4.5256	2.1282	2.3200
57	4.7624	5.4315	4.0238	4.6860	4.3869	4.6803	3.9485	4.5206	2.1272	2.3188
58	4.7555	5.4188	4.0190	4.6803	4.3862	4.6786	3.9553	4.5155	2.1268	2.3182
59	4.7479	5.4059	4.0146	4.6742	4.3863	4.6765	3.9639	4.5100	2.1269	2.3180
60	4.7401	5.3931	4.0110	4.6676	4.3874	4.6741	3.9742	4.5040	2.1277	2.3181
61	4.7320	5.3801	4.0079	4.6603	4.3895	4.6708	3.9861	4.4973	2.1293	2.3187
62	4.7239	5.3668	4.0057	4.6526	4.3926	4.6669	3.9995	4.4902	2.1317	2.3197
63	4.7161	5.3538	4.0041	4.6446	4.3967	4.6625	4.0143	4.4825	2.1349	2.3209
64	4.7085	5.3407	4.0033	4.6368	4.4017	4.6571	4.0302	4.4742	2.1391	2.3223
65	4.7019	5.3287	4.0032	4.6288	4.4075	4.6507	4.0472	4.4651	2.1440	2.3237
66	4.6958	5.3169	4.0036	4.6208	4.4137	4.6428	4.0650	4.4552	2.1495	2.3252
67	4.6906	5.3058	4.0046	4.6124	4.4199	4.6334	4.0836	4.4447	2.1555	2.3266
68	4.6859	5.2946	4.0060	4.6035	4.4260	4.6228	4.1027	4.4336	2.1618	2.3277
69	4.6821	5.2833	4.0079	4.5944	4.4315	4.6107	4.1221	4.4217	2.1679	2.3285
70	4.6790	5.2720	4.0102	4.5850	4.4362	4.5969	4.1414	4.4086	2.1737	2.3289
71	4.6768	5.2605	4.0131	4.5756	4.4399	4.5815	4.1604	4.3941	2.1790	2.3289
72	4.6756	5.2499	4.0167	4.5660	4.4424	4.5642	4.1786	4.3781	2.1836	2.3286
73	4.6750	5.2393	4.0212	4.5562	4.4438	4.5457	4.1956	4.3608	2.1875	2.3279
74	4.6754	5.2300	4.0268	4.5458	4.4440	4.5260	4.2112	4.3425	2.1907	2.3270
75	4.6762	5.2207	4.0335	4.5352	4.4432	4.5058	4.2254	4.3235	2.1934	2.3259
76	4.6778	5.2121	4.0412	4.5241	4.4418	4.4852	4.2386	4.3043	2.1956	2.3246
77	4.6799	5.2034	4.0499	4.5133	4.4402	4.4646	4.2514	4.2858	2.1974	2.3235
78	4.6839	5.1956	4.0598	4.5028	4.4392	4.4446	4.2645	4.2687	2.1991	2.3227
79	4.6912	5.1895	4.0719	4.4940	4.4405	4.4271	4.2791	4.2539	2.2010	2.3224
80	4.7015	5.1832	4.0865	4.4860	4.4455	4.4117	4.2994	4.2427	2.2055	2.3231
81	4.7170	5.1775	4.1106	4.4817	4.4604	4.3996	4.3267	4.2354	2.2171	2.3265
82	4.7445	5.1748	4.1487	4.4836	4.4881	4.3967	4.3633	4.2356	2.2364	2.3346
83	4.7854	5.1795	4.1977	4.4944	4.5296	4.4042	4.4108	4.2454	2.2640	2.3472
84	4.8412	5.1968	4.2631	4.5238	4.5859	4.4243	4.4691	4.2709	2.3003	2.3653
85	4.9224	5.2386	4.3421	4.5684	4.6630	4.4632	4.5402	4.3114	2.3475	2.3924
